 Au Density=19.32, Angle=90.deg
 Photon Energy (eV), Atten Length (microns)
   30.0000  5.983534E-03
   35.0000  6.861660E-03
   40.0000  7.782756E-03
   45.0000  8.457384E-03
   50.0000  9.585655E-03
   55.0000  9.879675E-03
   60.0000  9.766279E-03
   65.0000  1.066878E-02
   70.0000  1.264704E-02
   75.0000  1.397663E-02
   80.0000  1.540717E-02
   85.0000  1.607327E-02
   90.0000  1.930214E-02
   95.0000  2.372877E-02
   100.000  2.803487E-02
   105.000  3.321467E-02
   110.000  3.872761E-02
   115.000  4.399538E-02
   120.000  4.946105E-02
   125.000  5.515544E-02
   130.000  6.232779E-02
   135.000  7.045449E-02
   140.000  7.525887E-02
   145.000  7.958090E-02
   150.000  8.097016E-02
   155.000  8.204753E-02
   160.000  8.132136E-02
   165.000  7.880821E-02
   170.000  7.608261E-02
   175.000  7.141789E-02
   180.000  6.678529E-02
   185.000  6.254844E-02
   190.000  5.864366E-02
   195.000  5.507305E-02
   200.000  5.183074E-02
   205.000  4.904921E-02
   210.000  4.651346E-02
   215.000  4.431593E-02
   220.000  4.290136E-02
   225.000  4.156292E-02
   230.000  4.029367E-02
   235.000  3.921687E-02
   240.000  3.836497E-02
   245.000  3.756656E-02
   250.000  3.679997E-02
   255.000  3.620509E-02
   260.000  3.571006E-02
   265.000  3.523343E-02
   270.000  3.477182E-02
   275.000  3.440667E-02
   280.000  3.422147E-02
   285.000  3.409491E-02
   290.000  3.397115E-02
   295.000  3.384971E-02
   300.000  3.373092E-02
   305.000  3.361439E-02
   310.000  3.350244E-02
   315.000  3.347826E-02
   320.000  3.347822E-02
   325.000  3.347822E-02
   330.000  3.347827E-02
   335.000  3.347820E-02
   340.000  3.347816E-02
   345.000  3.347824E-02
   350.000  3.348102E-02
   355.000  3.358177E-02
   360.000  3.376485E-02
   365.000  3.394634E-02
   370.000  3.412638E-02
   375.000  3.430491E-02
   380.000  3.448189E-02
   385.000  3.465750E-02
   390.000  3.483177E-02
   395.000  3.500471E-02
   400.000  3.517631E-02
   405.000  3.542241E-02
   410.000  3.570181E-02
   415.000  3.599731E-02
   420.000  3.629180E-02
   425.000  3.658510E-02
   430.000  3.687730E-02
   435.000  3.716845E-02
   440.000  3.745858E-02
   445.000  3.774754E-02
   450.000  3.804611E-02
   455.000  3.836250E-02
   460.000  3.870386E-02
   465.000  3.904694E-02
   470.000  3.938931E-02
   475.000  3.973100E-02
   480.000  4.007207E-02
   485.000  4.041256E-02
   490.000  4.075231E-02
   495.000  4.109141E-02
   500.000  4.142990E-02
   505.000  4.176782E-02
   510.000  4.210589E-02
   515.000  4.245135E-02
   520.000  4.279750E-02
   525.000  4.314474E-02
   530.000  4.349155E-02
   535.000  4.383785E-02
   540.000  4.418364E-02
   545.000  4.452892E-02
   550.000  4.487371E-02
   555.000  4.521801E-02
   560.000  4.556182E-02
   565.000  4.590794E-02
   570.000  4.625437E-02
   575.000  4.661509E-02
   580.000  4.697588E-02
   585.000  4.733623E-02
   590.000  4.769629E-02
   595.000  4.805605E-02
   600.000  4.841549E-02
   605.000  4.877459E-02
   610.000  4.913336E-02
   615.000  4.949182E-02
   620.000  4.984994E-02
   625.000  5.020775E-02
   630.000  5.056524E-02
   635.000  5.092241E-02
   640.000  5.127928E-02
   645.000  5.163584E-02
   650.000  5.201898E-02
   655.000  5.245107E-02
   660.000  5.290046E-02
   665.000  5.339959E-02
   670.000  5.389962E-02
   675.000  5.440045E-02
   680.000  5.490220E-02
   685.000  5.540498E-02
   690.000  5.590864E-02
   695.000  5.641311E-02
   700.000  5.691845E-02
   705.000  5.742469E-02
   710.000  5.793184E-02
   715.000  5.843985E-02
   720.000  5.894869E-02
   725.000  5.945839E-02
   730.000  5.995887E-02
   735.000  6.045950E-02
   740.000  6.096064E-02
   745.000  6.146237E-02
   750.000  6.196482E-02
   755.000  6.246796E-02
   760.000  6.297183E-02
   765.000  6.347645E-02
   770.000  6.398181E-02
   775.000  6.448787E-02
   780.000  6.499461E-02
   785.000  6.550206E-02
   790.000  6.601040E-02
   795.000  6.651947E-02
   800.000  6.704846E-02
   805.000  6.762657E-02
   810.000  6.820606E-02
   815.000  6.878693E-02
   820.000  6.936918E-02
   825.000  6.995278E-02
   830.000  7.053763E-02
   835.000  7.112385E-02
   840.000  7.171136E-02
   845.000  7.230017E-02
   850.000  7.289031E-02
   855.000  7.348179E-02
   860.000  7.407457E-02
   865.000  7.466867E-02
   870.000  7.526894E-02
   875.000  7.587085E-02
   880.000  7.649401E-02
   885.000  7.723564E-02
   890.000  7.798022E-02
   895.000  7.872774E-02
   900.000  7.947825E-02
   905.000  8.023165E-02
   910.000  8.098803E-02
   915.000  8.174728E-02
   920.000  8.250949E-02
   925.000  8.327459E-02
   930.000  8.404260E-02
   935.000  8.481357E-02
   940.000  8.558741E-02
   945.000  8.636414E-02
   950.000  8.714380E-02
   955.000  8.794776E-02
   960.000  8.878049E-02
   965.000  8.961667E-02
   970.000  9.046572E-02
   975.000  9.133410E-02
   980.000  9.220630E-02
   985.000  9.308229E-02
   990.000  9.396214E-02
   995.000  9.484579E-02
   1000.00  9.573326E-02
   1005.00  9.662472E-02
   1010.00  9.752004E-02
   1015.00  9.841922E-02
   1020.00  9.932189E-02
   1025.00  0.100228
   1030.00  0.101139
   1035.00  0.102133
   1040.00  0.103201
   1045.00  0.104275
   1050.00  0.105371
   1055.00  0.106539
   1060.00  0.107714
   1065.00  0.108897
   1070.00  0.110087
   1075.00  0.111285
   1080.00  0.112490
   1085.00  0.113702
   1090.00  0.114922
   1095.00  0.116149
   1100.00  0.117383
   1105.00  0.118625
   1110.00  0.119875
   1115.00  0.121132
   1120.00  0.122396
   1125.00  0.123668
   1130.00  0.124947
   1135.00  0.126234
   1140.00  0.127528
   1145.00  0.128831
   1150.00  0.130141
   1155.00  0.131458
   1160.00  0.132784
   1165.00  0.134117
   1170.00  0.135457
   1175.00  0.136806
   1180.00  0.138162
   1185.00  0.139525
   1190.00  0.140896
   1195.00  0.142275
   1200.00  0.143661
   1205.00  0.145055
   1210.00  0.146457
   1215.00  0.147846
   1220.00  0.149228
   1225.00  0.150619
   1230.00  0.152016
   1235.00  0.153337
   1240.00  0.154627
   1245.00  0.155923
   1250.00  0.157225
   1255.00  0.158531
   1260.00  0.159844
   1265.00  0.161162
   1270.00  0.162485
   1275.00  0.163814
   1280.00  0.165149
   1285.00  0.166490
   1290.00  0.167836
   1295.00  0.169188
   1300.00  0.170546
   1305.00  0.171909
   1310.00  0.173277
   1315.00  0.174701
   1320.00  0.176217
   1325.00  0.177742
   1330.00  0.179273
   1335.00  0.180815
   1340.00  0.182388
   1345.00  0.183969
   1350.00  0.185557
   1355.00  0.187153
   1360.00  0.188756
   1365.00  0.190367
   1370.00  0.191986
   1375.00  0.193613
   1380.00  0.195248
   1385.00  0.196890
   1390.00  0.198540
   1395.00  0.200198
   1400.00  0.201864
   1405.00  0.203538
   1410.00  0.205219
   1415.00  0.206909
   1420.00  0.208606
   1425.00  0.210243
   1430.00  0.211793
   1435.00  0.213350
   1440.00  0.214913
   1445.00  0.216481
   1450.00  0.218038
   1455.00  0.219596
   1460.00  0.221160
   1465.00  0.222730
   1470.00  0.224306
   1475.00  0.225895
   1480.00  0.227489
   1485.00  0.229089
   1490.00  0.230695
   1495.00  0.232558
   1500.00  0.234823
   1505.00  0.237102
   1510.00  0.239396
   1515.00  0.241704
   1520.00  0.244035
   1525.00  0.246388
   1530.00  0.248755
   1535.00  0.251137
   1540.00  0.253534
   1545.00  0.255862
   1550.00  0.258158
   1555.00  0.260467
   1560.00  0.262790
   1565.00  0.265125
   1570.00  0.267224
   1575.00  0.269208
   1580.00  0.271199
   1585.00  0.273199
   1590.00  0.275208
   1595.00  0.277205
   1600.00  0.279198
   1605.00  0.281198
   1610.00  0.283207
   1615.00  0.285224
   1620.00  0.287261
   1625.00  0.289322
   1630.00  0.291392
   1635.00  0.293470
   1640.00  0.295556
   1645.00  0.297718
   1650.00  0.300136
   1655.00  0.302566
   1660.00  0.305008
   1665.00  0.307463
   1670.00  0.309930
   1675.00  0.312245
   1680.00  0.314552
   1685.00  0.316869
   1690.00  0.319196
   1695.00  0.321534
   1700.00  0.323751
   1705.00  0.325841
   1710.00  0.327939
   1715.00  0.330045
   1720.00  0.332157
   1725.00  0.334278
   1730.00  0.336669
   1735.00  0.339070
   1740.00  0.341482
   1745.00  0.343903
   1750.00  0.346335
   1755.00  0.348605
   1760.00  0.350647
   1765.00  0.352696
   1770.00  0.354750
   1775.00  0.356811
   1780.00  0.358877
   1785.00  0.360762
   1790.00  0.362588
   1795.00  0.364419
   1800.00  0.366254
   1805.00  0.368093
   1810.00  0.369936
   1815.00  0.372438
   1820.00  0.374956
   1825.00  0.377485
   1830.00  0.380023
   1835.00  0.382572
   1840.00  0.385096
   1845.00  0.387404
   1850.00  0.389720
   1855.00  0.392044
   1860.00  0.394375
   1865.00  0.396714
   1870.00  0.398992
   1875.00  0.400979
   1880.00  0.402971
   1885.00  0.404968
   1890.00  0.406969
   1895.00  0.408974
   1900.00  0.411062
   1905.00  0.413630
   1910.00  0.416208
   1915.00  0.418794
   1920.00  0.421391
   1925.00  0.423996
   1930.00  0.426611
   1935.00  0.429565
   1940.00  0.432533
   1945.00  0.435513
   1950.00  0.438507
   1955.00  0.441513
   1960.00  0.444533
   1965.00  0.447270
   1970.00  0.449918
   1975.00  0.452576
   1980.00  0.455243
   1985.00  0.457918
   1990.00  0.460603
   1995.00  0.463244
   2000.00  0.465819
   2005.00  0.468401
   2010.00  0.470992
   2015.00  0.473590
   2020.00  0.476196
   2025.00  0.478810
   2030.00  0.481663
