 Cu Density=8.96, Angle=90.deg
 Photon Energy (eV), Atten Length (microns)
   30.0000  1.045205E-02
   35.0000  1.222522E-02
   40.0000  1.426834E-02
   45.0000  1.455643E-02
   50.0000  1.472150E-02
   55.0000  1.497167E-02
   60.0000  1.517153E-02
   65.0000  1.545410E-02
   70.0000  1.579473E-02
   75.0000  1.630927E-02
   80.0000  1.677849E-02
   85.0000  1.719086E-02
   90.0000  1.742891E-02
   95.0000  1.764004E-02
   100.000  1.778205E-02
   105.000  1.791525E-02
   110.000  1.808386E-02
   115.000  1.826926E-02
   120.000  1.844841E-02
   125.000  1.874133E-02
   130.000  1.911359E-02
   135.000  1.947888E-02
   140.000  1.983734E-02
   145.000  2.019773E-02
   150.000  2.084420E-02
   155.000  2.154050E-02
   160.000  2.223680E-02
   165.000  2.293334E-02
   170.000  2.362974E-02
   175.000  2.455140E-02
   180.000  2.560107E-02
   185.000  2.666499E-02
   190.000  2.774294E-02
   195.000  2.883478E-02
   200.000  2.999558E-02
   205.000  3.128581E-02
   210.000  3.260877E-02
   215.000  3.394660E-02
   220.000  3.525844E-02
   225.000  3.658728E-02
   230.000  3.793551E-02
   235.000  3.930278E-02
   240.000  4.068884E-02
   245.000  4.211553E-02
   250.000  4.362256E-02
   255.000  4.515543E-02
   260.000  4.671094E-02
   265.000  4.828883E-02
   270.000  4.988898E-02
   275.000  5.151138E-02
   280.000  5.315582E-02
   285.000  5.482228E-02
   290.000  5.651065E-02
   295.000  5.822083E-02
   300.000  5.995265E-02
   305.000  6.172997E-02
   310.000  6.362608E-02
   315.000  6.554899E-02
   320.000  6.749826E-02
   325.000  6.947405E-02
   330.000  7.147587E-02
   335.000  7.350425E-02
   340.000  7.555885E-02
   345.000  7.763941E-02
   350.000  7.974622E-02
   355.000  8.187912E-02
   360.000  8.404859E-02
   365.000  8.626437E-02
   370.000  8.851852E-02
   375.000  9.079969E-02
   380.000  9.310843E-02
   385.000  9.544466E-02
   390.000  9.780818E-02
   395.000  0.100199
   400.000  0.102617
   405.000  0.105062
   410.000  0.107653
   415.000  0.110433
   420.000  0.113452
   425.000  0.116516
   430.000  0.119625
   435.000  0.122780
   440.000  0.125980
   445.000  0.129227
   450.000  0.132519
   455.000  0.135858
   460.000  0.139109
   465.000  0.142171
   470.000  0.144985
   475.000  0.147823
   480.000  0.150688
   485.000  0.153577
   490.000  0.156491
   495.000  0.159429
   500.000  0.162393
   505.000  0.165456
   510.000  0.168607
   515.000  0.172098
   520.000  0.175626
   525.000  0.179193
   530.000  0.182796
   535.000  0.186437
   540.000  0.190116
   545.000  0.193833
   550.000  0.197587
   555.000  0.201379
   560.000  0.205209
   565.000  0.209077
   570.000  0.212982
   575.000  0.216926
   580.000  0.220938
   585.000  0.225207
   590.000  0.229549
   595.000  0.234021
   600.000  0.238541
   605.000  0.243109
   610.000  0.247727
   615.000  0.252393
   620.000  0.257109
   625.000  0.261873
   630.000  0.266687
   635.000  0.271551
   640.000  0.276497
   645.000  0.281540
   650.000  0.286713
   655.000  0.292083
   660.000  0.297511
   665.000  0.302998
   670.000  0.308545
   675.000  0.314150
   680.000  0.319815
   685.000  0.325539
   690.000  0.331323
   695.000  0.337167
   700.000  0.343070
   705.000  0.348732
   710.000  0.354170
   715.000  0.359522
   720.000  0.364525
   725.000  0.369562
   730.000  0.374633
   735.000  0.379738
   740.000  0.384878
   745.000  0.390052
   750.000  0.395260
   755.000  0.400502
   760.000  0.405779
   765.000  0.411089
   770.000  0.416434
   775.000  0.421912
   780.000  0.427632
   785.000  0.433391
   790.000  0.439708
   795.000  0.446186
   800.000  0.452718
   805.000  0.459303
   810.000  0.465942
   815.000  0.472636
   820.000  0.479385
   825.000  0.486188
   830.000  0.493044
   835.000  0.499955
   840.000  0.506922
   845.000  0.513943
   850.000  0.521019
   855.000  0.529553
   860.000  0.538786
   865.000  0.548126
   870.000  0.557832
   875.000  0.567668
   880.000  0.577534
   885.000  0.587003
   890.000  0.596573
   895.000  0.605881
   900.000  0.614429
   905.000  0.623050
   910.000  0.636316
   915.000  0.656508
   920.000  0.677226
   925.000  0.698482
   930.000  0.720283
   935.000  8.569372E-02
   940.000  8.702151E-02
   945.000  8.836271E-02
   950.000  8.971736E-02
   955.000  9.108564E-02
   960.000  9.246754E-02
   965.000  9.386303E-02
   970.000  9.527189E-02
   975.000  9.669396E-02
   980.000  9.812978E-02
   985.000  9.957939E-02
   990.000  0.101043
   995.000  0.102521
   1000.00  0.104012
   1005.00  0.105518
   1010.00  0.107038
   1015.00  0.108572
   1020.00  0.110121
   1025.00  0.111684
   1030.00  0.113262
   1035.00  0.114684
   1040.00  0.115973
   1045.00  0.117270
   1050.00  0.118504
   1055.00  0.119466
   1060.00  0.120430
   1065.00  0.121398
   1070.00  0.122369
   1075.00  0.123343
   1080.00  0.124320
   1085.00  0.125301
   1090.00  0.126284
   1095.00  0.127271
   1100.00  0.128261
   1105.00  0.129254
   1110.00  0.130250
   1115.00  0.131249
   1120.00  0.132251
   1125.00  0.133257
   1130.00  0.134266
   1135.00  0.135278
   1140.00  0.136293
   1145.00  0.137311
   1150.00  0.138332
   1155.00  0.139357
   1160.00  0.140384
   1165.00  0.141414
   1170.00  0.142448
   1175.00  0.143485
   1180.00  0.144525
   1185.00  0.145568
   1190.00  0.146614
   1195.00  0.147663
   1200.00  0.148715
   1205.00  0.149771
   1210.00  0.150829
   1215.00  0.151891
   1220.00  0.152955
   1225.00  0.154023
   1230.00  0.155093
   1235.00  0.156262
   1240.00  0.157479
   1245.00  0.158700
   1250.00  0.159926
   1255.00  0.161272
   1260.00  0.162672
   1265.00  0.164080
   1270.00  0.165493
   1275.00  0.167051
   1280.00  0.168689
   1285.00  0.170337
   1290.00  0.171994
   1295.00  0.173661
   1300.00  0.175338
   1305.00  0.177024
   1310.00  0.178720
   1315.00  0.180425
   1320.00  0.182140
   1325.00  0.183865
   1330.00  0.185599
   1335.00  0.187343
   1340.00  0.189098
   1345.00  0.190862
   1350.00  0.192636
   1355.00  0.194420
   1360.00  0.196213
   1365.00  0.198017
   1370.00  0.199831
   1375.00  0.201654
   1380.00  0.203487
   1385.00  0.205330
   1390.00  0.207183
   1395.00  0.209045
   1400.00  0.210918
   1405.00  0.212801
   1410.00  0.214694
   1415.00  0.216597
   1420.00  0.218510
   1425.00  0.220434
   1430.00  0.222367
   1435.00  0.224311
   1440.00  0.226265
   1445.00  0.228229
   1450.00  0.230204
   1455.00  0.232189
   1460.00  0.234184
   1465.00  0.236189
   1470.00  0.238205
   1475.00  0.240233
   1480.00  0.242272
   1485.00  0.244320
   1490.00  0.246379
   1495.00  0.248451
   1500.00  0.250537
   1505.00  0.252634
   1510.00  0.254741
   1515.00  0.256858
   1520.00  0.258987
   1525.00  0.261127
   1530.00  0.263277
   1535.00  0.265438
   1540.00  0.267609
   1545.00  0.269791
   1550.00  0.271983
   1555.00  0.274186
   1560.00  0.276399
   1565.00  0.278623
   1570.00  0.280858
   1575.00  0.283104
   1580.00  0.285361
   1585.00  0.287629
   1590.00  0.289907
   1595.00  0.292196
   1600.00  0.294496
   1605.00  0.296807
   1610.00  0.299129
   1615.00  0.301462
   1620.00  0.303806
   1625.00  0.306161
   1630.00  0.308526
   1635.00  0.310903
   1640.00  0.313290
   1645.00  0.315689
   1650.00  0.318098
   1655.00  0.320518
   1660.00  0.322950
   1665.00  0.325392
   1670.00  0.327846
   1675.00  0.330310
   1680.00  0.332786
   1685.00  0.335273
   1690.00  0.337770
   1695.00  0.340280
   1700.00  0.342800
   1705.00  0.345331
   1710.00  0.347874
   1715.00  0.350428
   1720.00  0.352993
   1725.00  0.355569
   1730.00  0.358195
   1735.00  0.360832
   1740.00  0.363482
   1745.00  0.366143
   1750.00  0.368816
   1755.00  0.371506
   1760.00  0.374217
   1765.00  0.376939
   1770.00  0.379674
   1775.00  0.382421
   1780.00  0.385180
   1785.00  0.387959
   1790.00  0.390754
   1795.00  0.393561
   1800.00  0.396380
   1805.00  0.399212
   1810.00  0.402056
   1815.00  0.404911
   1820.00  0.407779
   1825.00  0.410659
   1830.00  0.413551
   1835.00  0.416456
   1840.00  0.419373
   1845.00  0.422301
   1850.00  0.425243
   1855.00  0.428196
   1860.00  0.431162
   1865.00  0.434141
   1870.00  0.437132
   1875.00  0.440135
   1880.00  0.443151
   1885.00  0.446179
   1890.00  0.449220
   1895.00  0.452274
   1900.00  0.455341
   1905.00  0.458422
   1910.00  0.461515
   1915.00  0.464621
   1920.00  0.467740
   1925.00  0.470872
   1930.00  0.474016
   1935.00  0.477173
   1940.00  0.480343
   1945.00  0.483525
   1950.00  0.486721
   1955.00  0.489929
   1960.00  0.493150
   1965.00  0.496382
   1970.00  0.499627
   1975.00  0.502885
   1980.00  0.506156
   1985.00  0.509440
   1990.00  0.512736
   1995.00  0.516032
   2000.00  0.519321
   2005.00  0.522622
   2010.00  0.525935
   2015.00  0.529262
   2020.00  0.532601
   2025.00  0.535953
   2030.00  0.539384
