 Fe Density=7.874, Angle=90.deg
 Photon Energy (eV), Atten Length (microns)
   30.0000  1.570785E-02
   35.0000  1.936508E-02
   40.0000  2.339378E-02
   45.0000  2.818768E-02
   50.0000  3.347984E-02
   55.0000  9.805189E-03
   60.0000  9.608228E-03
   65.0000  1.253768E-02
   70.0000  1.526817E-02
   75.0000  1.728551E-02
   80.0000  1.834007E-02
   85.0000  1.931034E-02
   90.0000  2.024896E-02
   95.0000  2.112009E-02
   100.000  2.198114E-02
   105.000  2.283272E-02
   110.000  2.370528E-02
   115.000  2.457873E-02
   120.000  2.544516E-02
   125.000  2.632796E-02
   130.000  2.741620E-02
   135.000  2.853527E-02
   140.000  2.965687E-02
   145.000  3.078085E-02
   150.000  3.200807E-02
   155.000  3.332290E-02
   160.000  3.464739E-02
   165.000  3.598131E-02
   170.000  3.732455E-02
   175.000  3.867673E-02
   180.000  4.003778E-02
   185.000  4.140747E-02
   190.000  4.281635E-02
   195.000  4.467592E-02
   200.000  4.672949E-02
   205.000  4.882313E-02
   210.000  5.095689E-02
   215.000  5.313017E-02
   220.000  5.534321E-02
   225.000  5.756898E-02
   230.000  5.940942E-02
   235.000  6.126714E-02
   240.000  6.314211E-02
   245.000  6.503391E-02
   250.000  6.694253E-02
   255.000  6.886768E-02
   260.000  7.080924E-02
   265.000  7.276691E-02
   270.000  7.474060E-02
   275.000  7.681062E-02
   280.000  7.930721E-02
   285.000  8.205185E-02
   290.000  8.484130E-02
   295.000  8.767553E-02
   300.000  9.055428E-02
   305.000  9.347784E-02
   310.000  9.644542E-02
   315.000  9.945799E-02
   320.000  0.102515
   325.000  0.105616
   330.000  0.108761
   335.000  0.111951
   340.000  0.115829
   345.000  0.119915
   350.000  0.124088
   355.000  0.128345
   360.000  0.132685
   365.000  0.137108
   370.000  0.141617
   375.000  0.146209
   380.000  0.150887
   385.000  0.155269
   390.000  0.159427
   395.000  0.163553
   400.000  0.167898
   405.000  0.172628
   410.000  0.177473
   415.000  0.182393
   420.000  0.187387
   425.000  0.192457
   430.000  0.197603
   435.000  0.202825
   440.000  0.208122
   445.000  0.213495
   450.000  0.218944
   455.000  0.224470
   460.000  0.230073
   465.000  0.235753
   470.000  0.241510
   475.000  0.247345
   480.000  0.253257
   485.000  0.259248
   490.000  0.265326
   495.000  0.271494
   500.000  0.277766
   505.000  0.284119
   510.000  0.290551
   515.000  0.297065
   520.000  0.303660
   525.000  0.310336
   530.000  0.317093
   535.000  0.323932
   540.000  0.330852
   545.000  0.337855
   550.000  0.344941
   555.000  0.352108
   560.000  0.359357
   565.000  0.366690
   570.000  0.374107
   575.000  0.381606
   580.000  0.389189
   585.000  0.396855
   590.000  0.404485
   595.000  0.411839
   600.000  0.419154
   605.000  0.426331
   610.000  0.433568
   615.000  0.440866
   620.000  0.448236
   625.000  0.455681
   630.000  0.463326
   635.000  0.471207
   640.000  0.479349
   645.000  0.487835
   650.000  0.496514
   655.000  0.505480
   660.000  0.514537
   665.000  0.523684
   670.000  0.532836
   675.000  0.541458
   680.000  0.550155
   685.000  0.558379
   690.000  0.566643
   695.000  0.574807
   700.000  0.582979
   705.000  0.591206
   710.000  7.071632E-02
   715.000  7.190454E-02
   720.000  7.310433E-02
   725.000  7.431563E-02
   730.000  7.553829E-02
   735.000  7.677247E-02
   740.000  7.801804E-02
   745.000  7.927506E-02
   750.000  8.054358E-02
   755.000  8.182304E-02
   760.000  8.311422E-02
   765.000  8.441690E-02
   770.000  8.573119E-02
   775.000  8.705287E-02
   780.000  8.837719E-02
   785.000  8.971294E-02
   790.000  9.101551E-02
   795.000  9.231928E-02
   800.000  9.337023E-02
   805.000  9.376766E-02
   810.000  9.416427E-02
   815.000  9.456009E-02
   820.000  9.495510E-02
   825.000  9.534938E-02
   830.000  9.574308E-02
   835.000  9.613603E-02
   840.000  9.652822E-02
   845.000  9.691960E-02
   850.000  9.731029E-02
   855.000  9.806502E-02
   860.000  9.897895E-02
   865.000  9.989603E-02
   870.000  0.101267
   875.000  0.102675
   880.000  0.104094
   885.000  0.105524
   890.000  0.106966
   895.000  0.108419
   900.000  0.109884
   905.000  0.111360
   910.000  0.112848
   915.000  0.114348
   920.000  0.115860
   925.000  0.117369
   930.000  0.118872
   935.000  0.120386
   940.000  0.121907
   945.000  0.123434
   950.000  0.124973
   955.000  0.126518
   960.000  0.128069
   965.000  0.129631
   970.000  0.131204
   975.000  0.132789
   980.000  0.134385
   985.000  0.135991
   990.000  0.137610
   995.000  0.139240
   1000.00  0.140881
   1005.00  0.142534
   1010.00  0.144199
   1015.00  0.145875
   1020.00  0.147572
   1025.00  0.149283
   1030.00  0.151005
   1035.00  0.152748
   1040.00  0.154511
   1045.00  0.156285
   1050.00  0.158074
   1055.00  0.159892
   1060.00  0.161722
   1065.00  0.163563
   1070.00  0.165418
   1075.00  0.167285
   1080.00  0.169164
   1085.00  0.171055
   1090.00  0.172959
   1095.00  0.174875
   1100.00  0.176803
   1105.00  0.178744
   1110.00  0.180697
   1115.00  0.182663
   1120.00  0.184641
   1125.00  0.186632
   1130.00  0.188635
   1135.00  0.190651
   1140.00  0.192679
   1145.00  0.194719
   1150.00  0.196771
   1155.00  0.198837
   1160.00  0.200915
   1165.00  0.203006
   1170.00  0.205110
   1175.00  0.207226
   1180.00  0.209355
   1185.00  0.211497
   1190.00  0.213651
   1195.00  0.215819
   1200.00  0.217999
   1205.00  0.220192
   1210.00  0.222398
   1215.00  0.224617
   1220.00  0.226849
   1225.00  0.229094
   1230.00  0.231351
   1235.00  0.233635
   1240.00  0.235937
   1245.00  0.238253
   1250.00  0.240582
   1255.00  0.242940
   1260.00  0.245317
   1265.00  0.247707
   1270.00  0.250112
   1275.00  0.252549
   1280.00  0.255009
   1285.00  0.257484
   1290.00  0.259973
   1295.00  0.262475
   1300.00  0.264992
   1305.00  0.267523
   1310.00  0.270068
   1315.00  0.272628
   1320.00  0.275202
   1325.00  0.277790
   1330.00  0.280393
   1335.00  0.283011
   1340.00  0.285644
   1345.00  0.288292
   1350.00  0.290954
   1355.00  0.293631
   1360.00  0.296322
   1365.00  0.299028
   1370.00  0.301750
   1375.00  0.304485
   1380.00  0.307236
   1385.00  0.310000
   1390.00  0.312780
   1395.00  0.315574
   1400.00  0.318383
   1405.00  0.321206
   1410.00  0.324045
   1415.00  0.326898
   1420.00  0.329766
   1425.00  0.332649
   1430.00  0.335547
   1435.00  0.338460
   1440.00  0.341388
   1445.00  0.344332
   1450.00  0.347295
   1455.00  0.350275
   1460.00  0.353271
   1465.00  0.356281
   1470.00  0.359309
   1475.00  0.362362
   1480.00  0.365431
   1485.00  0.368515
   1490.00  0.371615
   1495.00  0.374749
   1500.00  0.377928
   1505.00  0.381123
   1510.00  0.384334
   1515.00  0.387562
   1520.00  0.390809
   1525.00  0.394076
   1530.00  0.397360
   1535.00  0.400659
   1540.00  0.403976
   1545.00  0.407308
   1550.00  0.410657
   1555.00  0.414022
   1560.00  0.417403
   1565.00  0.420802
   1570.00  0.424217
   1575.00  0.427650
   1580.00  0.431099
   1585.00  0.434565
   1590.00  0.438048
   1595.00  0.441548
   1600.00  0.445065
   1605.00  0.448598
   1610.00  0.452149
   1615.00  0.455717
   1620.00  0.459302
   1625.00  0.462905
   1630.00  0.466524
   1635.00  0.470161
   1640.00  0.473814
   1645.00  0.477485
   1650.00  0.481172
   1655.00  0.484875
   1660.00  0.488597
   1665.00  0.492335
   1670.00  0.496091
   1675.00  0.499864
   1680.00  0.503654
   1685.00  0.507462
   1690.00  0.511287
   1695.00  0.515130
   1700.00  0.518990
   1705.00  0.522869
   1710.00  0.526765
   1715.00  0.530678
   1720.00  0.534609
   1725.00  0.538558
   1730.00  0.542593
   1735.00  0.546646
   1740.00  0.550718
   1745.00  0.554808
   1750.00  0.558917
   1755.00  0.563055
   1760.00  0.567226
   1765.00  0.571416
   1770.00  0.575625
   1775.00  0.579853
   1780.00  0.584100
   1785.00  0.588382
   1790.00  0.592689
   1795.00  0.597015
   1800.00  0.601360
   1805.00  0.605725
   1810.00  0.610109
   1815.00  0.614513
   1820.00  0.618936
   1825.00  0.623378
   1830.00  0.627840
   1835.00  0.632322
   1840.00  0.636823
   1845.00  0.641344
   1850.00  0.645884
   1855.00  0.650444
   1860.00  0.655023
   1865.00  0.659623
   1870.00  0.664242
   1875.00  0.668881
   1880.00  0.673540
   1885.00  0.678218
   1890.00  0.682916
   1895.00  0.687635
   1900.00  0.692373
   1905.00  0.697132
   1910.00  0.701910
   1915.00  0.706708
   1920.00  0.711527
   1925.00  0.716366
   1930.00  0.721224
   1935.00  0.726104
   1940.00  0.731004
   1945.00  0.735924
   1950.00  0.740864
   1955.00  0.745825
   1960.00  0.750806
   1965.00  0.755809
   1970.00  0.760833
   1975.00  0.765877
   1980.00  0.770942
   1985.00  0.776027
   1990.00  0.781133
   1995.00  0.786236
   2000.00  0.791327
   2005.00  0.796437
   2010.00  0.801567
   2015.00  0.806719
   2020.00  0.811889
   2025.00  0.817081
   2030.00  0.822403
