 Pb Density=11.35, Angle=90.deg
 Photon Energy (eV), Atten Length (microns)
   30.0000  2.194055E-02
   35.0000  1.726719E-02
   40.0000  1.417871E-02
   45.0000  1.254750E-02
   50.0000  1.188599E-02
   55.0000  1.161984E-02
   60.0000  1.173618E-02
   65.0000  1.235055E-02
   70.0000  1.351463E-02
   75.0000  1.478010E-02
   80.0000  1.617069E-02
   85.0000  1.830938E-02
   90.0000  2.061861E-02
   95.0000  2.417423E-02
   100.000  2.837867E-02
   105.000  3.377007E-02
   110.000  4.077484E-02
   115.000  5.093624E-02
   120.000  6.061822E-02
   125.000  7.070541E-02
   130.000  8.044043E-02
   135.000  8.835648E-02
   140.000  9.672138E-02
   145.000  0.106490
   150.000  0.119869
   155.000  0.133569
   160.000  0.146285
   165.000  0.159709
   170.000  0.169434
   175.000  0.178294
   180.000  0.184191
   185.000  0.185392
   190.000  0.186125
   195.000  0.185789
   200.000  0.180810
   205.000  0.174439
   210.000  0.165099
   215.000  0.155669
   220.000  0.146974
   225.000  0.138448
   230.000  0.129892
   235.000  0.122034
   240.000  0.114800
   245.000  0.108133
   250.000  0.102862
   255.000  9.896853E-02
   260.000  9.535912E-02
   265.000  9.194773E-02
   270.000  8.871811E-02
   275.000  8.579011E-02
   280.000  8.317316E-02
   285.000  8.070028E-02
   290.000  7.834214E-02
   295.000  7.609063E-02
   300.000  7.394101E-02
   305.000  7.190841E-02
   310.000  7.104253E-02
   315.000  7.020047E-02
   320.000  6.938124E-02
   325.000  6.858420E-02
   330.000  6.780849E-02
   335.000  6.705297E-02
   340.000  6.631647E-02
   345.000  6.564945E-02
   350.000  6.501427E-02
   355.000  6.439388E-02
   360.000  6.378795E-02
   365.000  6.324251E-02
   370.000  6.288767E-02
   375.000  6.302296E-02
   380.000  6.315663E-02
   385.000  6.328876E-02
   390.000  6.341954E-02
   395.000  6.355488E-02
   400.000  6.371856E-02
   405.000  6.405608E-02
   410.000  6.441391E-02
   415.000  6.476938E-02
   420.000  6.512262E-02
   425.000  6.547358E-02
   430.000  6.582227E-02
   435.000  6.616280E-02
   440.000  6.647658E-02
   445.000  6.678361E-02
   450.000  6.708732E-02
   455.000  6.738897E-02
   460.000  6.768879E-02
   465.000  6.798663E-02
   470.000  6.828252E-02
   475.000  6.857648E-02
   480.000  6.898594E-02
   485.000  6.955522E-02
   490.000  7.019822E-02
   495.000  7.085129E-02
   500.000  7.150369E-02
   505.000  7.215559E-02
   510.000  7.280697E-02
   515.000  7.345773E-02
   520.000  7.410789E-02
   525.000  7.475749E-02
   530.000  7.541304E-02
   535.000  7.607327E-02
   540.000  7.678192E-02
   545.000  7.749052E-02
   550.000  7.819912E-02
   555.000  7.890768E-02
   560.000  7.961624E-02
   565.000  8.032475E-02
   570.000  8.103325E-02
   575.000  8.174175E-02
   580.000  8.245020E-02
   585.000  8.315866E-02
   590.000  8.386888E-02
   595.000  8.458444E-02
   600.000  8.530563E-02
   605.000  8.603738E-02
   610.000  8.676925E-02
   615.000  8.750118E-02
   620.000  8.823337E-02
   625.000  8.896582E-02
   630.000  8.969837E-02
   635.000  9.043103E-02
   640.000  9.116386E-02
   645.000  9.189687E-02
   650.000  9.260688E-02
   655.000  9.327462E-02
   660.000  9.393784E-02
   665.000  9.458865E-02
   670.000  9.523902E-02
   675.000  9.588891E-02
   680.000  9.653839E-02
   685.000  9.718756E-02
   690.000  9.783631E-02
   695.000  9.848462E-02
   700.000  9.913254E-02
   705.000  9.978002E-02
   710.000  0.100427
   715.000  0.101074
   720.000  0.101720
   725.000  0.102366
   730.000  0.103012
   735.000  0.103657
   740.000  0.104372
   745.000  0.105135
   750.000  0.105904
   755.000  0.106691
   760.000  0.107480
   765.000  0.108269
   770.000  0.109059
   775.000  0.109849
   780.000  0.110640
   785.000  0.111431
   790.000  0.112275
   795.000  0.113130
   800.000  0.114006
   805.000  0.114932
   810.000  0.115860
   815.000  0.116789
   820.000  0.117721
   825.000  0.118654
   830.000  0.119588
   835.000  0.120525
   840.000  0.121469
   845.000  0.122424
   850.000  0.123380
   855.000  0.124325
   860.000  0.125265
   865.000  0.126206
   870.000  0.127028
   875.000  0.127844
   880.000  0.128661
   885.000  0.129479
   890.000  0.130298
   895.000  0.131118
   900.000  0.131938
   905.000  0.132759
   910.000  0.133580
   915.000  0.134402
   920.000  0.135225
   925.000  0.136207
   930.000  0.137366
   935.000  0.138529
   940.000  0.139740
   945.000  0.141003
   950.000  0.142269
   955.000  0.143578
   960.000  0.144937
   965.000  0.146301
   970.000  0.147671
   975.000  0.149048
   980.000  0.150430
   985.000  0.151821
   990.000  0.153226
   995.000  0.154637
   1000.00  0.156055
   1005.00  0.157489
   1010.00  0.158930
   1015.00  0.160377
   1020.00  0.161929
   1025.00  0.163508
   1030.00  0.165095
   1035.00  0.166693
   1040.00  0.168302
   1045.00  0.169918
   1050.00  0.171542
   1055.00  0.173179
   1060.00  0.174824
   1065.00  0.176476
   1070.00  0.178138
   1075.00  0.179808
   1080.00  0.181485
   1085.00  0.183171
   1090.00  0.184865
   1095.00  0.186566
   1100.00  0.188275
   1105.00  0.189993
   1110.00  0.191718
   1115.00  0.193451
   1120.00  0.195193
   1125.00  0.196943
   1130.00  0.198701
   1135.00  0.200467
   1140.00  0.202241
   1145.00  0.204023
   1150.00  0.205813
   1155.00  0.207611
   1160.00  0.209418
   1165.00  0.211233
   1170.00  0.213056
   1175.00  0.214887
   1180.00  0.216726
   1185.00  0.218573
   1190.00  0.220428
   1195.00  0.222291
   1200.00  0.224163
   1205.00  0.226042
   1210.00  0.227929
   1215.00  0.229824
   1220.00  0.231727
   1225.00  0.233638
   1230.00  0.235557
   1235.00  0.237482
   1240.00  0.239413
   1245.00  0.241352
   1250.00  0.243300
   1255.00  0.245251
   1260.00  0.247209
   1265.00  0.249174
   1270.00  0.251148
   1275.00  0.253125
   1280.00  0.255109
   1285.00  0.257100
   1290.00  0.259098
   1295.00  0.261106
   1300.00  0.263121
   1305.00  0.265144
   1310.00  0.267176
   1315.00  0.269214
   1320.00  0.271261
   1325.00  0.273316
   1330.00  0.275378
   1335.00  0.277449
   1340.00  0.279528
   1345.00  0.281615
   1350.00  0.283710
   1355.00  0.285812
   1360.00  0.287923
   1365.00  0.290042
   1370.00  0.292169
   1375.00  0.294303
   1380.00  0.296446
   1385.00  0.298597
   1390.00  0.300755
   1395.00  0.302922
   1400.00  0.305096
   1405.00  0.307279
   1410.00  0.309470
   1415.00  0.311669
   1420.00  0.313876
   1425.00  0.316091
   1430.00  0.318313
   1435.00  0.320544
   1440.00  0.322782
   1445.00  0.325028
   1450.00  0.327293
   1455.00  0.329568
   1460.00  0.331851
   1465.00  0.334142
   1470.00  0.336444
   1475.00  0.338773
   1480.00  0.341110
   1485.00  0.343455
   1490.00  0.345808
   1495.00  0.348205
   1500.00  0.350664
   1505.00  0.353133
   1510.00  0.355610
   1515.00  0.358097
   1520.00  0.360600
   1525.00  0.363118
   1530.00  0.365645
   1535.00  0.368181
   1540.00  0.370727
   1545.00  0.373282
   1550.00  0.375847
   1555.00  0.378422
   1560.00  0.381006
   1565.00  0.383599
   1570.00  0.386202
   1575.00  0.388813
   1580.00  0.391435
   1585.00  0.394065
   1590.00  0.396705
   1595.00  0.399354
   1600.00  0.402013
   1605.00  0.404682
   1610.00  0.407359
   1615.00  0.410046
   1620.00  0.412744
   1625.00  0.415453
   1630.00  0.418171
   1635.00  0.420899
   1640.00  0.423636
   1645.00  0.426382
   1650.00  0.429137
   1655.00  0.431901
   1660.00  0.434675
   1665.00  0.437458
   1670.00  0.440251
   1675.00  0.443053
   1680.00  0.445865
   1685.00  0.448686
   1690.00  0.451516
   1695.00  0.454356
   1700.00  0.457205
   1705.00  0.460065
   1710.00  0.462933
   1715.00  0.465811
   1720.00  0.468699
   1725.00  0.471596
   1730.00  0.474562
   1735.00  0.477539
   1740.00  0.480525
   1745.00  0.483521
   1750.00  0.486527
   1755.00  0.489553
   1760.00  0.492600
   1765.00  0.495658
   1770.00  0.498726
   1775.00  0.501804
   1780.00  0.504893
   1785.00  0.508005
   1790.00  0.511132
   1795.00  0.514270
   1800.00  0.517419
   1805.00  0.520577
   1810.00  0.523746
   1815.00  0.526925
   1820.00  0.530113
   1825.00  0.533313
   1830.00  0.536522
   1835.00  0.539742
   1840.00  0.542973
   1845.00  0.546213
   1850.00  0.549464
   1855.00  0.552726
   1860.00  0.555998
   1865.00  0.559280
   1870.00  0.562574
   1875.00  0.565879
   1880.00  0.569194
   1885.00  0.572520
   1890.00  0.575857
   1895.00  0.579204
   1900.00  0.582561
   1905.00  0.585929
   1910.00  0.589307
   1915.00  0.592695
   1920.00  0.596094
   1925.00  0.599504
   1930.00  0.602924
   1935.00  0.606355
   1940.00  0.609797
   1945.00  0.613249
   1950.00  0.616713
   1955.00  0.620186
   1960.00  0.623671
   1965.00  0.627167
   1970.00  0.630673
   1975.00  0.634190
   1980.00  0.637718
   1985.00  0.641257
   1990.00  0.644806
   1995.00  0.648343
   2000.00  0.651858
   2005.00  0.655383
   2010.00  0.658918
   2015.00  0.662464
   2020.00  0.666020
   2025.00  0.669586
   2030.00  0.673266
